#   1 NUMBER                 Running object number                                     
#   2 X_IMAGE                Object position along x                                    [pixel]
#   3 Y_IMAGE                Object position along y                                    [pixel]
#   4 ALPHA_J2000            Right ascension of barycenter (J2000)                      [deg]
#   5 DELTA_J2000            Declination of barycenter (J2000)                          [deg]
#   6 MAG_AUTO               Kron-like elliptical aperture magnitude                    [mag]
#   7 MAGERR_AUTO            RMS error for AUTO magnitude                               [mag]
#   8 A_IMAGE                Profile RMS along major axis                               [pixel]
#   9 B_IMAGE                Profile RMS along minor axis                               [pixel]
#  10 THETA_IMAGE            Position angle (CCW/x)                                     [deg]
#  11 FWHM_IMAGE             FWHM assuming a gaussian core                              [pixel]
#  12 ELLIPTICITY            1 - B_IMAGE/A_IMAGE                                       
#  13 FLAGS                  Extraction flags                                          
#  14 CLASS_STAR             S/G classifier output                                     
#  15 CXX_IMAGE              Cxx object ellipse parameter                               [pixel**(-2)]
#  16 CYY_IMAGE              Cyy object ellipse parameter                               [pixel**(-2)]
#  17 CXY_IMAGE              Cxy object ellipse parameter                               [pixel**(-2)]
#  18 KRON_RADIUS            Kron apertures in units of A or B                         
#  19 MAG_APER               Fixed aperture magnitude vector                            [mag]
#  24 MAGERR_APER            RMS error vector for fixed aperture mag.                   [mag]
#  29 MAG_ISO                Isophotal magnitude                                        [mag]
#  30 MAGERR_ISO             RMS error for isophotal magnitude                          [mag]
#  31 MAG_ISOCOR             Corrected isophotal magnitude                              [mag]
#  32 MAGERR_ISOCOR          RMS error for corrected isophotal magnitude                [mag]
         1    563.138    563.229  92.4885679 +79.9258997  11.9094   0.0000    75.638    71.739  17.7    18.63    0.052   2  0.04 1.7658719e-04 1.9251132e-04 -1.1289534e-05  3.30  17.0065  16.6686  16.5301  15.5743  15.1462   0.0003   0.0002   0.0002   0.0001   0.0001  11.8908   0.0000  11.8684   0.0001
         2    161.344     15.919  92.6248416 +79.9278669  18.9207   0.0016     4.491     4.368 -83.1    10.45    0.027  18  0.31 5.2372381e-02 4.9627088e-02 6.7435030e-04  3.77  21.4881  21.1658  21.0492  20.1469  19.7759   0.0028   0.0024   0.0023   0.0016   0.0014  18.8664   0.0014  18.8269   0.0023
         3    524.680      4.175  92.5819860 +79.9164142  19.9341   0.0080    12.561     4.070   2.4    42.92    0.676  26  0.00 6.4296029e-03 6.0291130e-02 -4.4349069e-03  6.41  24.6953  24.3533  24.2104  23.2242  22.8339   0.0374   0.0320   0.0299   0.0191   0.0161  20.5677   0.0063  19.9972   0.0171
         4    147.516    901.550  92.4858603 +79.9452138  19.5783   0.0038     6.278     5.072  57.0    13.93    0.192   0  0.00 3.4853578e-02 2.9385995e-02 -1.2338152e-02  4.05  22.7943  22.4682  22.3477  21.4028  20.9969   0.0074   0.0064   0.0060   0.0040   0.0034  19.7272   0.0029  19.6126   0.0063
         5    957.551    865.217  92.3922475 +79.9194402  19.6385   0.0038     4.488     4.446  86.8    10.45    0.009   0  0.14 5.0590459e-02 4.9650837e-02 -1.0516636e-04  4.86  22.2245  21.8950  21.7591  20.8700  20.4999   0.0047   0.0041   0.0038   0.0027   0.0023  19.6866   0.0024  19.6223   0.0044
         6    866.101    722.825  92.4260661 +79.9195624  17.2804   0.0005     6.553     5.278  43.2    10.43    0.195   2  0.85 2.9199569e-02 2.9988145e-02 -1.2591049e-02  3.37  19.8540  19.5335  19.4088  18.5186  18.1474   0.0011   0.0009   0.0009   0.0006   0.0005  17.2701   0.0005  17.2509   0.0008
         7    509.480    795.712  92.4582167 +79.9319928  16.5564   0.0004     7.671     7.492  83.5    10.46    0.023   2  0.85 1.7806055e-02 1.7002458e-02 -1.8447584e-04  3.78  19.1668  18.8353  18.7166  17.8167  17.4465   0.0007   0.0006   0.0006   0.0004   0.0003  16.5549   0.0004  16.5346   0.0006
         8    589.981    715.276  92.4611202 +79.9279678  16.4072   0.0003     5.724     5.602  87.8    10.50    0.021   2  0.85 3.1860549e-02 3.0518821e-02 -1.0247876e-04  4.99  19.0520  18.7221  18.5901  17.7035  17.3293   0.0007   0.0006   0.0006   0.0004   0.0003  16.4532   0.0003  16.4480   0.0003
         9    596.959    979.219  92.4183046 +79.9327795  19.2821   0.0025     4.636     4.391  77.2    10.60    0.053   0  0.14 5.1595215e-02 4.6796829e-02 -2.2944598e-03  4.24  21.9476  21.6215  21.4846  20.5962  20.2217   0.0039   0.0033   0.0031   0.0022   0.0019  19.3644   0.0019  19.3179   0.0032
        10     94.490    656.055  92.5314312 +79.9421698  20.2592   0.0069     5.013     4.519  68.7    12.43    0.099   0  0.00 4.7763672e-02 4.1010685e-02 -6.2111863e-03  4.68  23.2430  22.9118  22.7975  21.8648  21.4660   0.0106   0.0092   0.0087   0.0059   0.0051  20.4439   0.0044  20.2781   0.0106
        11    983.756    495.396  92.4477580 +79.9115873  18.7676   0.0019     6.369     5.344  74.1    13.12    0.161   0  0.11 3.4239560e-02 2.5433924e-02 -5.4782550e-03  4.13  21.9032  21.5682  21.4260  20.5050  20.0983   0.0037   0.0032   0.0030   0.0020   0.0017  18.8572   0.0015  18.8048   0.0027
        12     92.390    285.487  92.5905633 +79.9351543  19.3681   0.0038     6.233     5.572  70.5    13.02    0.106   0  0.00 3.1489812e-02 2.6459588e-02 -4.0729051e-03  4.76  22.6135  22.2781  22.1499  21.2255  20.8237   0.0064   0.0055   0.0052   0.0035   0.0030  19.5593   0.0026  19.4463   0.0057
        13    255.745    237.455  92.5780722 +79.9291868  20.7301   0.0182     7.206     4.481  78.7    21.80    0.378   0  0.00 4.8637152e-02 2.0427495e-02 -1.1720871e-02  6.78  24.3052  23.9904  23.8434  22.8901  22.4620   0.0266   0.0231   0.0216   0.0143   0.0120  21.0593   0.0080  20.4561   0.0215
        14    275.311    166.103  92.5869852 +79.9272179  16.7361   0.0003     6.187     4.777  36.4    13.05    0.228   0  0.77 3.2349471e-02 3.7592396e-02 -1.6900484e-02  3.30  19.5931  19.2651  19.1447  18.2152  17.8242   0.0009   0.0008   0.0008   0.0005   0.0004  16.7309   0.0003  16.7240   0.0004
        15    728.642    165.296  92.5313911 +79.9131859  19.7200   0.0043     5.113     4.658  81.7    11.82    0.089   0  0.06 4.5926690e-02 3.8416281e-02 -2.2336969e-03  4.66  22.5988  22.2761  22.1530  21.2310  20.8401   0.0063   0.0055   0.0052   0.0035   0.0030  19.8377   0.0028  19.7470   0.0058
        16     21.015    104.190  92.6281349 +79.9338917  19.7991   0.0044     4.760     4.433  77.7    11.26    0.069  18  0.04 5.0575834e-02 4.4449911e-02 -2.8097038e-03  4.67  22.6793  22.3522  22.2167  21.3179  20.9352   0.0067   0.0058   0.0055   0.0038   0.0033  19.7961   0.0030  19.6690   0.0068
        17    735.253     70.814  92.5455552 +79.9111772  19.0188   0.0016     4.406     4.357  87.3    10.43    0.011   0  0.22 5.2681539e-02 5.1508807e-02 -1.0943395e-04  3.30  21.5843  21.2542  21.1129  20.2279  19.8567   0.0030   0.0026   0.0024   0.0017   0.0014  19.0398   0.0014  19.0091   0.0022
        18    103.859    943.191  92.4846038 +79.9473589  19.4061   0.0022     4.317     4.263  82.3    10.43    0.012   0  0.16 5.4995362e-02 5.3685036e-02 -3.6128768e-04  3.44  21.9753  21.6428  21.5031  20.6191  20.2484   0.0039   0.0034   0.0032   0.0022   0.0019  19.4436   0.0019  19.4008   0.0031
